XDAC V1.4 Datafile V1
"Fe_lepidocrocite.000" created on 11/3/2011 at 1:10:04 PM on X-23A2
Diffraction element= Si (311).  Ring energy= 2.80 GeV
E0= 7112.00
NUM_REGIONS= 4
SRB= -200 -20 30 60 15k
SRSS= 10 0.25 0.05k 0.05k
SPP= 0.5 0.5 0.5 0.125k
Settling time= 0.10


Offsets= 0.00 37.25 86.25 0.00
Gains= 8.00 8.00 9.00 1.00
gamma-FeOOH on tape


--------------------------------------------------------------------------------
        Energy            I0            It            Ir       IntTime
    6912.00137     5004.0000      726.3750     1401.8750        0.5000
    6921.99811     5006.0000      734.3750     1419.8750        0.5000
    6931.99952     5031.0000      745.3750     1446.8750        0.5000
    6942.00100     5041.0000      754.3750     1466.8750        0.5000
    6951.99793     5055.0000      764.3750     1492.8750        0.5000
    6961.99916     5059.0000      773.3750     1514.8750        0.5000
    6972.00005     5047.0000      780.3750     1530.8750        0.5000
    6982.00050     5046.0000      788.3750     1551.8750        0.5000
    6992.00035     5052.0000      799.3750     1577.8750        0.5000
    7001.99948     5035.0000      805.3750     1591.8750        0.5000
    7011.99777     5037.0000      813.3750     1611.8750        0.5000
    7021.99962     5018.0000      818.3750     1624.8750        0.5000
    7032.00039     5018.0000      827.3750     1644.8750        0.5000
    7041.99992     5010.0000      833.3750     1657.8750        0.5000
    7051.99811     5007.0000      840.3750     1676.8750        0.5000
    7061.99940     5021.0000      851.3750     1703.8750        0.5000
    7071.99909     5043.0000      863.3750     1737.8750        0.5000
    7082.00166     5048.0000      873.3750     1760.8750        0.5000
    7091.99780     5037.0000      879.3750     1773.8750        0.5000
    7092.25090     5039.0000      880.3750     1777.8750        0.5000
    7092.49942     5031.0000      879.3750     1774.8750        0.5000
    7092.74794     5033.0000      879.3750     1774.8750        0.5000
    7093.00108     5040.0000      880.3750     1778.8750        0.5000
    7093.24962     5026.0000      878.3750     1773.8750        0.5000
    7093.49818     5031.0000      879.3750     1777.8750        0.5000
    7093.75135     5031.0000      880.3750     1778.8750        0.5000
    7093.99992     5037.0000      881.3750     1780.8750        0.5000
    7094.24851     5034.0000      881.3750     1779.8750        0.5000
    7094.50171     5021.0000      879.3750     1775.8750        0.5000
    7094.75031     5045.0000      883.3750     1783.8750        0.5000
    7094.99893     5032.0000      881.3750     1779.8750        0.5000
    7095.25216     5024.0000      880.3750     1777.8750        0.5000
    7095.50080     5017.0000      879.3750     1775.8750        0.5000
    7095.74944     5032.0000      882.3750     1780.8750        0.5000
    7095.99810     5022.0000      880.3750     1777.8750        0.5000
    7096.25137     5028.0000      881.3750     1778.8750        0.5000
    7096.50005     5039.0000      883.3750     1783.8750        0.5000
    7096.74874     5032.0000      883.3750     1783.8750        0.5000
    7097.00204     5048.0000      885.3750     1787.8750        0.5000
    7097.25075     5032.0000      883.3750     1782.8750        0.5000
    7097.49947     5029.0000      883.3750     1783.8750        0.5000
    7097.74820     5015.0000      880.3750     1777.8750        0.5000
    7098.00154     5023.0000      882.3750     1780.8750        0.5000
    7098.25029     5036.0000      884.3750     1786.8750        0.5000
    7098.49905     5026.0000      883.3750     1782.8750        0.5000
    7098.74782     5034.0000      884.3750     1785.8750        0.5000
    7099.00121     5025.0000      883.3750     1784.8750        0.5000
    7099.25000     5027.0000      884.3750     1784.8750        0.5000
    7099.49880     5034.0000      886.3750     1787.8750        0.5000
    7099.75221     5027.0000      884.3750     1784.8750        0.5000
    7100.00103     5037.0000      886.3750     1786.8750        0.5000
    7100.24986     5034.0000      885.3750     1785.8750        0.5000
    7100.49871     5027.0000      884.3750     1787.8750        0.5000
    7100.75216     5023.0000      884.3750     1785.8750        0.5000
    7101.00103     5026.0000      885.3750     1787.8750        0.5000
    7101.24990     5019.0000      884.3750     1784.8750        0.5000
    7101.49878     5029.0000      886.3750     1789.8750        0.5000
    7101.75228     5038.0000      887.3750     1791.8750        0.5000
    7102.00118     5014.0000      883.3750     1783.8750        0.5000
    7102.25009     5027.0000      886.3750     1787.8750        0.5000
    7102.49901     5027.0000      886.3750     1788.8750        0.5000
    7102.74795     5020.0000      884.3750     1786.8750        0.5000
    7103.00150     5023.0000      885.3750     1787.8750        0.5000
    7103.25045     5032.0000      887.3750     1789.8750        0.5000
    7103.49941     5027.0000      887.3750     1788.8750        0.5000
    7103.74839     5020.0000      886.3750     1786.8750        0.5000
    7104.00198     5027.0000      887.3750     1789.8750        0.5000
    7104.25098     5021.0000      887.3750     1789.8750        0.5000
    7104.49998     5030.0000      888.3750     1790.8750        0.5000
    7104.74899     5027.0000      888.3750     1788.8750        0.5000
    7104.99802     5031.0000      889.3750     1789.8750        0.5000
    7105.25166     5033.0000      889.3750     1790.8750        0.5000
    7105.50071     5033.0000      889.3750     1791.8750        0.5000
    7105.74976     5028.0000      890.3750     1788.8750        0.5000
    7105.99883     5028.0000      889.3750     1788.8750        0.5000
    7106.24790     5031.0000      890.3750     1790.8750        0.5000
    7106.50160     5021.0000      888.3750     1784.8750        0.5000
    7106.75069     5022.0000      888.3750     1784.8750        0.5000
    7106.99980     5019.0000      888.3750     1782.8750        0.5000
    7107.24891     5019.0000      888.3750     1783.8750        0.5000
    7107.49804     5026.0000      889.3750     1784.8750        0.5000
    7107.75179     5033.0000      891.3750     1785.8750        0.5000
    7108.00093     5017.0000      889.3750     1781.8750        0.5000
    7108.25009     5014.0000      888.3750     1777.8750        0.5000
    7108.49926     5027.0000      891.3750     1780.8750        0.5000
    7108.74843     5025.0000      890.3750     1778.8750        0.5000
    7109.00223     5023.0000      890.3750     1775.8750        0.5000
    7109.25143     5027.0000      890.3750     1775.8750        0.5000
    7109.50064     5018.0000      889.3750     1769.8750        0.5000
    7109.74985     5003.0000      886.3750     1761.8750        0.5000
    7109.99908     5013.0000      888.3750     1761.8750        0.5000
    7110.24832     5013.0000      889.3750     1757.8750        0.5000
    7110.50218     5006.0000      888.3750     1749.8750        0.5000
    7110.75144     5015.0000      889.3750     1744.8750        0.5000
    7111.00071     5027.0000      891.3750     1737.8750        0.5000
    7111.24998     5015.0000      889.3750     1720.8750        0.5000
    7111.49927     5012.0000      888.3750     1703.8750        0.5000
    7111.74857     5005.0000      887.3750     1671.8750        0.5000
    7111.99788     5015.0000      889.3750     1638.8750        0.5000
    7112.25181     5011.0000      888.3750     1590.8750        0.5000
    7112.50114     5012.0000      888.3750     1532.8750        0.5000
    7112.75048     5015.0000      887.3750     1490.8750        0.5000
    7112.99983     5001.0000      884.3750     1454.8750        0.5000
    7113.24919     4999.0000      881.3750     1430.8750        0.5000
    7113.49856     5007.0000      880.3750     1409.8750        0.5000
    7113.74794     5013.0000      879.3750     1390.8750        0.5000
    7114.00194     5004.0000      876.3750     1371.8750        0.5000
    7114.25134     5004.0000      877.3750     1358.8750        0.5000
    7114.50075     4996.0000      877.3750     1341.8750        0.5000
    7114.75017     5000.0000      877.3750     1328.8750        0.5000
    7114.99960     4991.0000      875.3750     1311.8750        0.5000
    7115.24904     4999.0000      876.3750     1301.8750        0.5000
    7115.49849     4998.0000      876.3750     1293.8750        0.5000
    7115.74795     5000.0000      878.3750     1289.8750        0.5000
    7116.00204     4992.0000      878.3750     1282.8750        0.5000
    7116.25152     5010.0000      882.3750     1284.8750        0.5000
    7116.50101     5002.0000      880.3750     1281.8750        0.5000
    7116.75052     4988.0000      878.3750     1273.8750        0.5000
    7117.00003     5011.0000      881.3750     1274.8750        0.5000
    7117.24955     4998.0000      878.3750     1268.8750        0.5000
    7117.49908     5015.0000      880.3750     1264.8750        0.5000
    7117.74862     4981.0000      873.3750     1248.8750        0.5000
    7117.99817     4999.0000      876.3750     1240.8750        0.5000
    7118.24773     4989.0000      873.3750     1220.8750        0.5000
    7118.50193     4994.0000      874.3750     1205.8750        0.5000
    7118.75151     4992.0000      873.3750     1187.8750        0.5000
    7119.00110     4994.0000      873.3750     1166.8750        0.5000
    7119.25070     4989.0000      871.3750     1143.8750        0.5000
    7119.50031     5008.0000      873.3750     1130.8750        0.5000
    7119.74994     4991.0000      870.3750     1103.8750        0.5000
    7119.99957     4979.0000      867.3750     1083.8750        0.5000
    7120.24921     5005.0000      870.3750     1071.8750        0.5000
    7120.49886     4992.0000      866.3750     1049.8750        0.5000
    7120.74853     4994.0000      863.3750     1020.8750        0.5000
    7120.99820     4977.0000      858.3750      995.8750        0.5000
    7121.24788     4990.0000      856.3750      975.8750        0.5000
    7121.50220     4997.0000      853.3750      952.8750        0.5000
    7121.75190     4974.0000      845.3750      926.8750        0.5000
    7122.00161     4987.0000      841.3750      901.8750        0.5000
    7122.25134     4972.0000      832.3750      878.8750        0.5000
    7122.50107     4975.0000      825.3750      862.8750        0.5000
    7122.75082     4976.0000      816.3750      838.8750        0.5000
    7123.00057     4967.0000      805.3750      819.8750        0.5000
    7123.25033     4976.0000      797.3750      802.8750        0.5000
    7123.50011     4953.0000      783.3750      779.8750        0.5000
    7123.74989     4970.0000      775.3750      762.8750        0.5000
    7123.99968     4960.0000      761.3750      741.8750        0.5000
    7124.24949     4962.0000      750.3750      723.8750        0.5000
    7124.49930     4974.0000      744.3750      711.8750        0.5000
    7124.74913     4964.0000      736.3750      699.8750        0.5000
    7124.99896     4956.0000      725.3750      684.8750        0.5000
    7125.24881     4967.0000      719.3750      672.8750        0.5000
    7125.49866     4955.0000      709.3750      659.8750        0.5000
    7125.74852     4950.0000      700.3750      647.8750        0.5000
    7125.99840     4949.0000      691.3750      635.8750        0.5000
    7126.24828     4951.0000      680.3750      620.8750        0.5000
    7126.49818     4927.0000      663.3750      604.8750        0.5000
    7126.74808     4829.0000      637.3750      573.8750        0.5000
    7126.99800     4889.0000      632.3750      560.8750        0.5000
    7127.24792     4921.0000      623.3750      551.8750        0.5000
    7127.49786     4933.0000      612.3750      539.8750        0.5000
    7127.74780     4935.0000      598.3750      522.8750        0.5000
    7127.99776     4940.0000      582.3750      503.8750        0.5000
    7128.24772     4928.0000      566.3750      485.8750        0.5000
    7128.49770     4933.0000      549.3750      466.8750        0.5000
    7128.74769     4931.0000      531.3750      446.8750        0.5000
    7129.00231     4921.0000      516.3750      429.8750        0.5000
    7129.24769     4925.0000      502.3750      412.8750        0.5000
    7129.49770     4933.0000      492.3750      399.8750        0.5000
    7129.74773     4926.0000      481.3750      386.8750        0.5000
    7129.99776     4912.0000      472.3750      374.8750        0.5000
    7130.24781     4924.0000      465.3750      365.8750        0.5000
    7130.49787     4915.0000      460.3750      357.8750        0.5000
    7130.74793     4887.0000      453.3750      352.8750        0.5000
    7130.99801     4814.0000      442.3750      338.8750        0.5000
    7131.24810     4865.0000      443.3750      333.8750        0.5000
    7131.49819     4896.0000      443.3750      334.8750        0.5000
    7131.74830     4896.0000      440.3750      331.8750        0.5000
    7131.99842     4906.0000      440.3750      331.8750        0.5000
    7132.24854     4902.0000      438.3750      329.8750        0.5000
    7132.49868     4904.0000      438.3750      332.8750        0.5000
    7132.74883     4899.0000      437.3750      333.8750        0.5000
    7132.99898     4892.0000      438.3750      336.8750        0.5000
    7133.24915     4896.0000      441.3750      342.8750        0.5000
    7133.49933     4912.0000      446.3750      348.8750        0.5000
    7133.74951     4892.0000      447.3750      353.8750        0.5000
    7133.99971     4901.0000      452.3750      360.8750        0.5000
    7134.24992     4898.0000      454.3750      364.8750        0.5000
    7134.50013     4911.0000      459.3750      372.8750        0.5000
    7134.75036     4909.0000      462.3750      377.8750        0.5000
    7135.00060     4911.0000      467.3750      384.8750        0.5000
    7135.25085     4907.0000      469.3750      389.8750        0.5000
    7135.50110     4902.0000      472.3750      394.8750        0.5000
    7135.75137     4901.0000      474.3750      400.8750        0.5000
    7136.00165     4890.0000      475.3750      403.8750        0.5000
    7136.25194     4905.0000      478.3750      408.8750        0.5000
    7136.50223     4908.0000      481.3750      411.8750        0.5000
    7136.74791     4908.0000      483.3750      413.8750        0.5000
    7136.99822     4897.0000      483.3750      416.8750        0.5000
    7137.24855     4902.0000      485.3750      418.8750        0.5000
    7137.49889     4910.0000      488.3750      421.8750        0.5000
    7137.74924     4890.0000      488.3750      421.8750        0.5000
    7137.99960     4899.0000      490.3750      424.8750        0.5000
    7138.24996     4910.0000      494.3750      425.8750        0.5000
    7138.50034     4907.0000      495.3750      427.8750        0.5000
    7138.75073     4894.0000      496.3750      427.8750        0.5000
    7139.00113     4904.0000      500.3750      428.8750        0.5000
    7139.25154     4905.0000      502.3750      429.8750        0.5000
    7139.50195     4888.0000      502.3750      428.8750        0.5000
    7139.74774     4910.0000      507.3750      431.8750        0.5000
    7139.99818     4910.0000      509.3750      432.8750        0.5000
    7140.24863     4918.0000      512.3750      433.8750        0.5000
    7140.49909     4900.0000      513.3750      432.8750        0.5000
    7140.74956     4898.0000      515.3750      432.8750        0.5000
    7141.00004     4896.0000      517.3750      433.8750        0.5000
    7141.25052     4902.0000      519.3750      434.8750        0.5000
    7141.50102     4896.0000      522.3750      435.8750        0.5000
    7141.75153     4890.0000      523.3750      435.8750        0.5000
    7143.07847     4903.0000      536.3750      444.8750        0.5000
    7144.17827     4892.0000      543.3750      450.8750        0.5000
    7145.29220     4908.0000      551.3750      460.8750        0.5000
    7146.42953     4897.0000      554.3750      463.8750        0.5000
    7147.58565     4891.0000      557.3750      460.8750        0.5000
    7148.75592     4879.0000      559.3750      454.8750        0.5000
    7149.94962     4894.0000      569.3750      453.8750        0.5000
    7151.16214     4889.0000      581.3750      458.8750        0.5000
    7152.39348     4863.0000      593.3750      463.8750        0.5000
    7153.64366     4888.0000      606.3750      470.8750        0.5000
    7154.91268     4889.0000      617.3750      478.8750        0.5000
    7156.20055     4881.0000      623.3750      484.8750        0.5000
    7157.50730     4812.0000      620.3750      479.8750        0.5000
    7158.83292     4883.0000      633.3750      497.8750        0.5000
    7160.18208     4887.0000      636.3750      499.8750        0.5000
    7161.54549     4884.0000      637.3750      502.8750        0.5000
    7162.92782     4891.0000      640.3750      504.8750        0.5000
    7164.32907     4902.0000      642.3750      508.8750        0.5000
    7165.75392     4913.0000      641.3750      511.8750        0.5000
    7167.19306     4917.0000      638.3750      511.8750        0.5000
    7168.65117     4922.0000      634.3750      509.8750        0.5000
    7170.13291     4918.0000      626.3750      505.8750        0.5000
    7171.62898     4918.0000      618.3750      501.8750        0.5000
    7173.52171     4953.0000      612.3005      500.7025        0.5020
    7175.06056     5026.0000      612.0398      505.0987        0.5090
    7176.62310     5081.0000      609.8162      510.5813        0.5150
    7178.20002     5157.0000      611.5928      519.0638        0.5210
    7179.79600     5206.0000      612.3692      528.5462        0.5270
    7181.41573     5299.0000      620.1085      542.9425        0.5340
    7183.04987     5371.0000      626.8850      551.4250        0.5400
    7184.70312     5426.0000      633.6615      557.9075        0.5460
    7186.38015     5502.0000      645.4380      566.3900        0.5520
    7188.07164     5571.0000      657.1772      572.7862        0.5590
    7189.78228     5640.0000      670.9538      574.2687        0.5650
    7191.51676     5710.0000      684.7302      576.7513        0.5710
    7193.26573     5765.0000      696.5068      578.2337        0.5770
    7195.03389     5830.0000      709.2460      580.6300        0.5840
    7196.82126     5908.0000      724.0225      590.1125        0.5900
    7198.62785     5957.0000      733.7990      600.5950        0.5960
    7200.45368     6019.0000      743.5755      619.0775        0.6020
    7202.30344     6106.0000      757.3148      644.4737        0.6090
    7204.16778     6160.0000      766.0912      665.9562        0.6150
    7206.05141     6224.0000      777.8678      689.4388        0.6210
    7207.94966     6282.0000      787.6443      710.9212        0.6270
    7209.87190     6359.0000      799.3835      724.3175        0.6340
    7211.81348     6418.0000      810.1600      722.8000        0.6400
    7213.77441     6461.0000      817.9365      702.2825        0.6460
    7215.75000     6540.0000      829.7130      680.7650        0.6520
    7217.74968     6625.0000      843.4523      659.1612        0.6590
    7219.76875     6670.0000      851.2287      641.6437        0.6650
    7221.80255     6736.0000      863.0053      641.1263        0.6710
    7223.85577     6809.0000      875.7817      655.6087        0.6770
